
--- Page 1 ---
510(k) SUBSTANTIAL EQUIVALENCE DETERMINATION
DECISION SUMMARY
ASSAY AND INSTRUMENT COMBINATION TEMPLATE
A. 510(k) Number:
k080370
B. Purpose for Submission:
Clearance of a modified device (adding CO-OX to an already cleared instrument).
C. Measurand:
Blood gases, blood pH, sodium, potassium, calcium, chloride, glucose, carboxyhemoglobin,
hemoglobin
D. Type of Test:
Potentiometric for pH, pCO2, Na+, K+, Cl-, Ca++
Amperometric for pO2, Glucose
Spectrophotometry for CO-Oximeter parameters
E. Applicant:
SenDx Medical, Inc.
F. Proprietary and Established Names:
ABL80 FLEX CO-OX
Regulatory Information:
1. Regulation section:
Description CFR Section
Blood gases and blood pH 862.1120
Sodium test system 862.1665
Potassium test system 862.1600
Calcium test system 862.1145
Chloride test system 862.1170
Glucose test system 862.1345
Carboxyhemoglobin assay 864.7425
Automated hemoglobin system 864.5620
Oximeter to measure hemoglobin 864.7500
Quality Control Material 862.1660
1

[Table 1 on page 1]
Description	CFR Section
Blood gases and blood pH	862.1120
Sodium test system	862.1665
Potassium test system	862.1600
Calcium test system	862.1145
Chloride test system	862.1170
Glucose test system	862.1345
Carboxyhemoglobin assay	864.7425
Automated hemoglobin system	864.5620
Oximeter to measure hemoglobin	864.7500
Quality Control Material	862.1660

--- Page 2 ---
2. Classification:
Description Class
Blood gases and blood pH Class II
Sodium test system Class II
Potassium test system Class II
Calcium test system Class II
Chloride test system Class II
Glucose test system Class II
Carboxyhemoglobin assay Class II
Automated hemoglobin system Class II
Oximeter to measure hemoglobin Class II
Quality Control Material Class I
3. Product code:
Description Product Code
Blood gases and blood pH CHL
Sodium test system JGS
Potassium test system CEM
Calcium test system JFP
Chloride test system CGZ
Glucose test system CGA
Carboxyhemoglobin assay GHS
Automated hemoglobin system GKR
Oximeter to measure hemoglobin GLY
Quality Control Material JJY
4. Panel:
75 (Clinical Chemistry)
H. Intended Use:
1. Intended use(s):
See indications for use below.
2. Indication(s) for use:
The ABL80 FLEX CO-OX is a portable, automated system that measures pH, blood
gases, electrolytes, glucose, and oximetry in whole blood. The ABL80 FLEX CO-OX
system is intended for use by trained technologists, nurses, physicians and therapists. It
2

[Table 1 on page 2]
Description	Class
Blood gases and blood pH	Class II
Sodium test system	Class II
Potassium test system	Class II
Calcium test system	Class II
Chloride test system	Class II
Glucose test system	Class II
Carboxyhemoglobin assay	Class II
Automated hemoglobin system	Class II
Oximeter to measure hemoglobin	Class II
Quality Control Material	Class I

[Table 2 on page 2]
Description	Product Code
Blood gases and blood pH	CHL
Sodium test system	JGS
Potassium test system	CEM
Calcium test system	JFP
Chloride test system	CGZ
Glucose test system	CGA
Carboxyhemoglobin assay	GHS
Automated hemoglobin system	GKR
Oximeter to measure hemoglobin	GLY
Quality Control Material	JJY

--- Page 3 ---
is intended for use in a laboratory environment, near patient or point-of-care setting.
These tests are only performed under a physicians order:
pH, pO2,and pCO2, : pH, pCO2 and pO2 measurements are used in the diagnosis and
treatment of life-threatening acid-base disturbances.
Potassium (cK+): potassium measurements are used to monitor electrolyte balance in the
diagnosis and treatment of disease conditions characterized by low or high blood
potassium levels.
Sodium (cNa+): sodium measurements are used in the diagnosis and treatment of
aldosteronism, diabetes insipidus, adrenal hypertension, Addison’s disease, dehydration,
inappropriate antidiuretic secretion, or other diseases involving electrolyte imbalance.
Calcium (cCa2+): calcium measurements are used in the diagnosis and treatment of
parathyroid disease, a variety of bone diseases, chronic renal disease and tetany.
Chloride (cCl-): chloride measurements are used in the diagnosis and treatment of
electrolyte and metabolic disorders such a cystic fibrosis and diabetic acidosis.
Glucose (cGlu): glucose measurements are used in the diagnosis and treatment of
carbohydrate metabolism disorders including diabetes mellitus, neonatal hypoglycemia,
and idiopathic hypoglycemia, and of pancreatic islet cell carcinoma.
Total Hemoglobin (ctHb): total hemoglobin measurements are used to measure the
hemoglobin content of whole blood for the detection of anemia.
sO2: oxygen saturation, more specifically the ratio between the concentration of
oxyhemoglobin and oxyhemoglobin plus reduced hemoglobin.
FO2Hb: oxyhemoglobin as a fraction of total hemoglobin.
FCOHb: carboxyhemoglobin measurements are used to determine the
carboxyhemoglobin content of human blood as an aid in the diagnosis of carbon
monoxide poisoning.
FMetHb: methemoglobin as a fraction of total hemoglobin.
FHHb: reduced hemoglobin as a fraction of total hemoglobin.
3. Special conditions for use statement(s):
For prescription use.
4. Special instrument requirements:
ABL80 FLEX CO-OX
3

--- Page 4 ---
I. Device Description:
The submitted device is the same device as the ABL80 FLEX (k051804) with the exception
of the addition of oximetry and the changes to the pump tube, sample inlet, sample volume,
and solution pack. As pH, pO2, pCO2, potassium, sodium, calcium, chloride, and glucose
were already cleared for use in the k051804 submission, the focus of this clearance is on only
the changes to the device (changes to the pump tube, sample inlet, sample volume, solution
pack, and addition of the analytes total hemoglobin, sO2, FO2Hb, FCOHb, FMetHb, and
FHHb).
J. Substantial Equivalence Information:
1. Predicate device name(s):
SenDx Medical, Inc. ABL80 FLEX
Radiometer Medical ApS ABL700 Series
2. Predicate 510(k) number(s):
k051804
k980130
3. Comparison with predicate:
Similarities
Item Device Predicate
ABL80 FLEX
Blood Gas Measurement pH, pCO , pO Same
2 2
Electrolyte Measurement cK+, cNa+, cCa2+, cCl- Same
Metabolite Measurement cGlucose Same
Calibration Method Two-point liquid calibration Same
Sensors Potentiometric, Same
amperometric
Storage conditions of Same Same
sensor cassette
Storage conditions for the Same Same
Solution Pack
ABL700
Blood Gas Measurement pH, pCO , pO Same
2 2
Electrolyte Measurement cK+, cNa+, cCa2+, cCl- Same
Metabolite Measurement cGlucose Same
Hemoglobin Measurement Photo spectroscopy Same
Sensors Potentiometric, Same
amperometric
Differences
Item Device Predicate
ABL80 FLEX
Oximetry System Contains oximetry system No oximetry system
Pump tube Incorporated into analyzer Incorporated into sensor
cassette
4

[Table 1 on page 4]
Similarities								
	Item			Device			Predicate	
						ABL80 FLEX		
Blood Gas Measurement			pH, pCO , pO
2 2			Same		
Electrolyte Measurement			cK+, cNa+, cCa2+, cCl-			Same		
Metabolite Measurement			cGlucose			Same		
Calibration Method			Two-point liquid calibration			Same		
Sensors			Potentiometric,
amperometric			Same		
Storage conditions of
sensor cassette			Same			Same		
Storage conditions for the
Solution Pack			Same			Same		
						ABL700		
Blood Gas Measurement			pH, pCO , pO
2 2			Same		
Electrolyte Measurement			cK+, cNa+, cCa2+, cCl-			Same		
Metabolite Measurement			cGlucose			Same		
Hemoglobin Measurement			Photo spectroscopy			Same		
Sensors			Potentiometric,
amperometric			Same		

[Table 2 on page 4]
Differences								
	Item			Device			Predicate	
						ABL80 FLEX		
Oximetry System			Contains oximetry system			No oximetry system		
Pump tube			Incorporated into analyzer			Incorporated into sensor
cassette		

--- Page 5 ---
Differences
Item Device Predicate
Sample inlet Self-cleaning inlet Inlet requires manual
wiping
Sample volume 100 micro liters 70 microliters
Solution Pack Contains sulforhodamine No sulforhodamine
for QC of co-oximetry
ABL700
Oximetry System Based on a 138-wavelength Based on a 128-wavelength
spectrophotometer with a spectrophotometer with a
measuring range of 467-672 measuring range of 478-
nm 672 nm
Calibration and QC Calibration and QC Discrete bottles or
solutions solutions, plus a waste ampoules
reservoir are contained in
one solution pack
K. Standard/Guidance Document Referenced (if applicable):
None referenced.
L. Test Principle:
There are three different measuring principles employed.
Potentiometry: A potential is recorded using a voltmeter, which relates to the concentration
of the sample. A reference electrode is used to provide a stable, fixed potential against which
other potential differences can be measured. This measurement technique is used for pH,
pCO2 and electrolytes.
Amperometry: The magnitude of an electrical flow of current is proportional to the
concentration of the substance being oxidized or reduced at an electrode. This measurement
technique is used for pO2 and Glucose.
CO-Oximetry: Measurements involve ultrasonically lysing the whole blood sample and then
utilizing a broad spectrum spectrometer to evaluate the sample at a variety of wavelengths.
M. Performance Characteristics (if/when applicable):
1. Analytical performance:
a. Precision/Reproducibility:
Samples were heparinized whole blood from healthy, voluntary donors. The blood
was prepared to obtain multiple concentration levels of each measured parameter.
For sO2 and FCOHb, the blood was mixed with appropriate gas mixture to attain test
levels. For FMetHb and FHHb the blood was chemically treated to attain test levels.
Five replicates per level and analyte were measured on each ABL80 FLEX CO-OX.
The test was repeated for 3 days. A single operator performed each test within each
5

[Table 1 on page 5]
Differences								
	Item			Device			Predicate	
Sample inlet			Self-cleaning inlet			Inlet requires manual
wiping		
Sample volume			100 micro liters			70 microliters		
Solution Pack			Contains sulforhodamine
for QC of co-oximetry			No sulforhodamine		
						ABL700		
Oximetry System			Based on a 138-wavelength
spectrophotometer with a
measuring range of 467-672
nm			Based on a 128-wavelength
spectrophotometer with a
measuring range of 478-
672 nm		
Calibration and QC
solutions			Calibration and QC
solutions, plus a waste
reservoir are contained in
one solution pack			Discrete bottles or
ampoules		

--- Page 6 ---
day. Multiple operators performed test between days. The standard deviation (SD)
and coefficient of variation (%CV) were calculated on pooled results using analysis
of variance.
Results/Acceptance criteria:
The table below lists SD and %CV for the parameters of the ABL80 FLEX CO-OX
analyzer.
Mean ABL80 FLEX CO-OX
Parameter Unit
Level SD %CV
ctHb (sO2 100%) 7.2 g/dL 0.07 1.0%
ctHb (sO2 100%) 14.5 g/dL 0.13 0.9%
ctHb (sO2 100%) 23.8 g/dL 0.21 0.9%
ctHb (sO2 0%) 14.8 g/dL 0.12 0.8%
sO2 (tHb 7 g/dL) 100.5 % 0.14 0.1%
sO2 (tHb 15 g/dL) 100.1 % 0.06 0.1%
sO2 (tHb 25 g/dL) 99.8 % 0.08 0.1%
sO2 (tHb 15 g/dL) 0.4 % 0.08 N/A
FO Hb (tHb 7 g/dL) 98.4 % 0.14 0.1%
2
FO Hb (tHb 15 g/dL) 98.7 % 0.07 0.1%
2
FO Hb (tHb 25 g/dL) 99.2 % 0.23 0.2%
2
FO Hb (tHb 15 g/dL) 0.2 % 0.08 N/A
2
FCOHb (tHb 15 g/dL) 21.1 % 0.09 0.4%
FCOHb (tHb 15 g/dL) 0.1 % 0.05 N/A
FMetHb (tHb 15 g/dL) 22.3 % 0.11 0.5%
FMetHb (tHb 15 g/dL) 1.6 % 0.06 N/A
FHHb (tHb 15 g/dL) 97.4 % 0.20 0.2%
FHHb (tHb 15 g/dL) -0.1 % 0.06 N/A
A precision study was performed to assess the reproducibility of sample measurement in
the ABL80 FLEX CO-OX when samples are performed by end-users at the point-of-care.
The method used for this study was repeat measurements on several levels of aqueous
samples in analysis mode. Aqueous samples consisted of ampoules containing 3
different levels of all parameters. Ampoules were chosen at random and analyzed once.
This study was performed by five different point of care personnel at two different
hospital locations. The site users had no previous experience with the ABL80 FLEX CO-
OX.
Results from each site were tabulated separately. The mean, standard deviation (SD), and
coefficient of variance (%CV) were calculated for each test level and parameter. The
data were not pooled due to small biases between sites. The biases are largely due to the
nature of the test samples. The test samples were aqueous quality control materials
packaged in glass ampoules with an included gas phase. The gas phase produces a
temperature dependency of the gas tensions and pH which, if not equilibrated to the same
temperature at each site, will produce small biases of the gas and pH measurements
between sites due to the temperature differences at the test sites.
6

[Table 1 on page 6]
Parameter	Mean
Level	Unit	ABL80 FLEX CO-OX	
			SD	%CV
ctHb (sO2 100%)	7.2	g/dL	0.07	1.0%
ctHb (sO2 100%)	14.5	g/dL	0.13	0.9%
ctHb (sO2 100%)	23.8	g/dL	0.21	0.9%
ctHb (sO2 0%)	14.8	g/dL	0.12	0.8%
sO2 (tHb 7 g/dL)	100.5	%	0.14	0.1%
sO2 (tHb 15 g/dL)	100.1	%	0.06	0.1%
sO2 (tHb 25 g/dL)	99.8	%	0.08	0.1%
sO2 (tHb 15 g/dL)	0.4	%	0.08	N/A
FO Hb (tHb 7 g/dL)
2	98.4	%	0.14	0.1%
FO Hb (tHb 15 g/dL)
2	98.7	%	0.07	0.1%
FO Hb (tHb 25 g/dL)
2	99.2	%	0.23	0.2%
FO Hb (tHb 15 g/dL)
2	0.2	%	0.08	N/A
FCOHb (tHb 15 g/dL)	21.1	%	0.09	0.4%
FCOHb (tHb 15 g/dL)	0.1	%	0.05	N/A
FMetHb (tHb 15 g/dL)	22.3	%	0.11	0.5%
FMetHb (tHb 15 g/dL)	1.6	%	0.06	N/A
FHHb (tHb 15 g/dL)	97.4	%	0.20	0.2%
FHHb (tHb 15 g/dL)	-0.1	%	0.06	N/A

--- Page 7 ---
Hospital Site 1
LEVEL
Parameter Unit Statistic Level 1 Level 2 Level 3
ctHb g/dL Mean 8.2 13.1 19.6
SD 0.04 0.08 0.11
%CV 0.5 0.6 0.6
sO2 % Mean 49.9 96.6 69.8
SD 0.01 0.06 0.02
%CV 0 0.1 0
FO Hb % Mean 44.6 92.1 49.1
2
SD 0.01 0.01 0.01
%CV 0 0 0
FCOHb % Mean 5.7 2.5 19.6
SD 0.04 0.07 0.04
%CV 0.7 2.6 0.2
FMetHb % Mean 5 2.1 10
SD 0 0.02 0
%CV 0.1 1 0
FHHb % Mean 44.8 3.2 21.3
SD 0.03 0.06 0.03
%CV 0.1 1.8 0.1
Hospital Site 2
LEVEL
Parameter Unit Statistic Level 1 Level 2 Level 3
ctHb g/dL Mean 8.3 13.1 19.6
SD 0.04 0.05 0.13
%CV 0.5 0.4 0.6
sO2 % Mean 49.9 96.6 69.8
SD 0 0.08 0.04
%CV 0 0.1 0.1
FO Hb % Mean 44.6 92.1 49.1
2
SD 0 0 0
%CV 0 0 0
FCOHb % Mean 5.6 2.5 19.6
SD 0.04 0.08 0.04
%CV 0.7 3 0.2
FMetHb % Mean 5 2.1 10
SD 0 0.05 0
%CV 0 2.5 0
FHHb % Mean 44.8 3.2 21.3
SD 0.04 0.05 0.03
%CV 0.1 1.6 0.1
b. Linearity/assay reportable range:
Reference method comparison for oximetry (tHb, sO2, O Hb, HHb, COHb and
2
7

[Table 1 on page 7]
Hospital Site 1					
Parameter	Unit	Statistic	LEVEL		
			Level 1	Level 2	Level 3
ctHb	g/dL	Mean	8.2	13.1	19.6
		SD	0.04	0.08	0.11
		%CV	0.5	0.6	0.6
sO2	%	Mean	49.9	96.6	69.8
		SD	0.01	0.06	0.02
		%CV	0	0.1	0
FO Hb
2	%	Mean	44.6	92.1	49.1
		SD	0.01	0.01	0.01
		%CV	0	0	0
FCOHb	%	Mean	5.7	2.5	19.6
		SD	0.04	0.07	0.04
		%CV	0.7	2.6	0.2
FMetHb	%	Mean	5	2.1	10
		SD	0	0.02	0
		%CV	0.1	1	0
FHHb	%	Mean	44.8	3.2	21.3
		SD	0.03	0.06	0.03
		%CV	0.1	1.8	0.1

[Table 2 on page 7]
Hospital Site 2					
Parameter	Unit	Statistic	LEVEL		
			Level 1	Level 2	Level 3
ctHb	g/dL	Mean	8.3	13.1	19.6
		SD	0.04	0.05	0.13
		%CV	0.5	0.4	0.6
sO2	%	Mean	49.9	96.6	69.8
		SD	0	0.08	0.04
		%CV	0	0.1	0.1
FO Hb
2	%	Mean	44.6	92.1	49.1
		SD	0	0	0
		%CV	0	0	0
FCOHb	%	Mean	5.6	2.5	19.6
		SD	0.04	0.08	0.04
		%CV	0.7	3	0.2
FMetHb	%	Mean	5	2.1	10
		SD	0	0.05	0
		%CV	0	2.5	0
FHHb	%	Mean	44.8	3.2	21.3
		SD	0.04	0.05	0.03
		%CV	0.1	1.6	0.1

--- Page 8 ---
MetHb) were against ABL735 analyzers. Samples were heparinized whole blood
from healthy, voluntary donors. The blood was prepared to obtain high, mid, and low
concentration levels of each measured parameter covering the reportable range. For
tHb, the plasma volume of the sample was adjusted to attain test levels. For sO2 and
FCOHb, the blood was mixed with an appropriate gas mixture to attain test levels.
For FMetHb and FHHb the blood was chemically treated to attain test levels using
sodium dithionite in TRIS-buffer for HHb and potassium nitrite in isotonic saline
solution for MetHb. Four replicates per level and parameter were measured on each
ABL80 FLEX CO-OX. Each sample was split with the reference method analyzer.
Results:
The results of the linearity testing and the reportable range for each parameter are
shown in the table below.
ctHb g/dL sO2 % FO2Hb %
ABL80 ABL735 Mean ABL80 ABL735 Mean ABL80 ABL735 Mean
Mean Mean Bias Mean Mean Bias Mean Mean Bias
5 5 0 0.1 0.2 -0.1 0.1 0.2 -0.1
11.6 11.6 0 20 19.5 0.5 18.1 17.8 0.3
14 14.2 -0.2 53.2 52.1 1.1 50.6 50.2 0.4
15.1 15.5 -0.4 70.1 69.4 0.7 68.7 68.5 0.2
17.7 18.1 -0.4 94 92.8 1.2 90.5 90.8 -0.3
24.6 25.6 -1 100 100 0 98.5 98.3 0.2
FCOHb % FMetHb % FHHb %
ABL80 ABL735 Mean ABL80 ABL735 Mean ABL80 ABL735 Mean
Mean Mean Bias Mean Mean Bias Mean Mean Bias
0.4 0.2 0.2 0.7 0.7 0 0 0 0
1.5 1.1 0.4 1.7 1 0.7 1.6 2.2 -0.6
3.4 2.5 0.9 5.3 5.3 0 4.9 5.8 -0.9
8.6 8.8 -0.2 7.8 7.4 0.4 29.4 30.3 -0.9
13.9 13.8 0.1 11.2 10.8 0.4 72.6 73.7 -1.1
26.1 25.8 0.3 26.4 26.4 0 98.5 98.9 -0.4
ctHb sO2 FO2Hb FCOHb FMetHb FHHb
(g/dL) (%) (%) (%) (%) (%)
N 24 24 24 24 24 24
Slope 0.95 1.005 0.999 0.988 0.989 0.999
-
Intercept 0.468 0.304 0.138 0.393 0.309 0.621
R 1 1 1 0.999 1 1
Min 5 0.1 0.1 0.2 0.7 0
Max 25.6 100 98.5 26.1 26.4 98.9
8

[Table 1 on page 8]
ctHb g/dL		
ABL80
Mean	ABL735
Mean	Mean
Bias
5	5	0
11.6	11.6	0
14	14.2	-0.2
15.1	15.5	-0.4
17.7	18.1	-0.4
24.6	25.6	-1

[Table 2 on page 8]
sO2 %		
ABL80
Mean	ABL735
Mean	Mean
Bias
0.1	0.2	-0.1
20	19.5	0.5
53.2	52.1	1.1
70.1	69.4	0.7
94	92.8	1.2
100	100	0

[Table 3 on page 8]
FO2Hb %		
ABL80
Mean	ABL735
Mean	Mean
Bias
0.1	0.2	-0.1
18.1	17.8	0.3
50.6	50.2	0.4
68.7	68.5	0.2
90.5	90.8	-0.3
98.5	98.3	0.2

[Table 4 on page 8]
FCOHb %		
ABL80
Mean	ABL735
Mean	Mean
Bias
0.4	0.2	0.2
1.5	1.1	0.4
3.4	2.5	0.9
8.6	8.8	-0.2
13.9	13.8	0.1
26.1	25.8	0.3

[Table 5 on page 8]
FMetHb %		
ABL80
Mean	ABL735
Mean	Mean
Bias
0.7	0.7	0
1.7	1	0.7
5.3	5.3	0
7.8	7.4	0.4
11.2	10.8	0.4
26.4	26.4	0

[Table 6 on page 8]
FHHb %		
ABL80
Mean	ABL735
Mean	Mean
Bias
0	0	0
1.6	2.2	-0.6
4.9	5.8	-0.9
29.4	30.3	-0.9
72.6	73.7	-1.1
98.5	98.9	-0.4

[Table 7 on page 8]
	ctHb
(g/dL)	sO2
(%)	FO2Hb
(%)	FCOHb
(%)	FMetHb
(%)	FHHb
(%)
N	24	24	24	24	24	24
Slope	0.95	1.005	0.999	0.988	0.989	0.999
Intercept	0.468	0.304	0.138	0.393	0.309	-
0.621
R	1	1	1	0.999	1	1
Min	5	0.1	0.1	0.2	0.7	0
Max	25.6	100	98.5	26.1	26.4	98.9

--- Page 9 ---
The claimed testing ranges are noted below with the lower range from the limit of
quantitation study in section M.1.d below:
Parameter Unit Test Range N
ctHb g/dL 7 – 25 180
sO2 % 0 – 100 180
FO Hb % 0 – 100 180
2
FCOHb % 0 – 20 90
FMetHb % 0 – 20 90
FHHb % 0 – 100 45
c. Traceability, Stability, Expected values (controls, calibrators, or methods):
The SP80 CO-OX solution pack consists of four solution pouches. These solutions
are used for calibration and quality control of the ABL80 FLEX CO-OX system.
Each solution contains varying analyte concentrations. The true value for each
solution is assigned from testing during manufacture. During testing, Reference
Ampoules are tested at the same time as the solution lot.
The true values of the reference ampoules are determined using reference methods
specified at Radiometer Medical. The true values for pH are traceable to the
Chemical Reference Laboratory, Danish Accreditation no. 119 and to SRM from
NIST. All other parameters are traceable to SRM from NIST. The following SRM
types are used: SRM 1701, SRM 1702, SRM 1703, SRM 186 IF, SMR 186 IIf, SRM
919a, SRM 999, SRM 915, and SRM 917a.
Stability testing was performed to verify solution values over shelf life at minimum
and maximum storage temperatures. The stability is calculated from the difference
between the initial values of each parameter at the time of production and the final
values after storage at the maximum storage temperature until the product expires.
True values, QC assigned values, QC acceptance ranges, and decay coefficients are
programmed onto the solution pack iButton at time of manufacture. This information
is read into the analyzer at time of installation.
Listed below are representative nominal true values of each solution:
Solution 1 Solution 2 Solution 3 Solution 4
Parameter
PN 41924 PN 42470 PN 41926 PN 42471
